# Version 2.1 - nm, norm@500 to 1, cut digits, C.dat
# Wavelength(nm)  Flambda(ergs/cm^s/s/nm)
300.00 0.2966391
300.10 0.2973755
300.20 0.2981119
300.30 0.2988483
300.40 0.2995848
300.50 0.3003214
300.60 0.301058
300.70 0.3017947
300.80 0.3025315
300.90 0.3032683
301.00 0.3040051
301.10 0.304742
301.20 0.305479
301.30 0.306216
301.40 0.3069973
301.50 0.3083661
301.60 0.309735
301.70 0.311104
301.80 0.3124731
301.90 0.3138423
302.00 0.3152116
302.10 0.316581
302.20 0.3179505
302.30 0.3193201
302.40 0.3206899
302.50 0.3220597
302.60 0.3234296
302.70 0.3247997
302.80 0.3261698
302.90 0.32754
303.00 0.3285544
303.10 0.3295541
303.20 0.3305538
303.30 0.3315536
303.40 0.3325534
303.50 0.3335534
303.60 0.3345534
303.70 0.3355535
303.80 0.3365536
303.90 0.3375539
304.00 0.3385542
304.10 0.3395546
304.20 0.340555
304.30 0.3415556
304.40 0.3425562
304.50 0.3429623
304.60 0.3431909
304.70 0.3434195
304.80 0.3436481
304.90 0.3438767
305.00 0.3441053
305.10 0.344334
305.20 0.3445627
305.30 0.3447914
305.40 0.3450201
305.50 0.3452488
305.60 0.3454775
305.70 0.3457063
305.80 0.345935
305.90 0.3461638
306.00 0.346538
306.10 0.3470577
306.20 0.3475774
306.30 0.3480972
306.40 0.348617
306.50 0.3491368
306.60 0.3496567
306.70 0.3501766
306.80 0.3506966
306.90 0.3512166
307.00 0.3517366
307.10 0.3522567
307.20 0.3527768
307.30 0.3532969
307.40 0.3538171
307.50 0.3541565
307.60 0.3535463
307.70 0.3529361
307.80 0.3523258
307.90 0.3517155
308.00 0.3511051
308.10 0.3504947
308.20 0.3498842
308.30 0.3492737
308.40 0.3486632
308.50 0.3480526
308.60 0.3474419
308.70 0.3468312
308.80 0.3462205
308.90 0.3456097
309.00 0.3449988
309.10 0.3456558
309.20 0.3467584
309.30 0.347861
309.40 0.3489637
309.50 0.3500665
309.60 0.3511694
309.70 0.3522724
309.80 0.3533754
309.90 0.3544785
310.00 0.3555818
310.10 0.3566851
310.20 0.3577884
310.30 0.3588919
310.40 0.3599955
310.50 0.3610991
310.60 0.3622309
310.70 0.3634469
310.80 0.364663
310.90 0.3658792
311.00 0.3670955
311.10 0.3683119
311.20 0.3695284
311.30 0.370745
311.40 0.3719617
311.50 0.3731784
311.60 0.3743953
311.70 0.3756122
311.80 0.3768293
311.90 0.3780464
312.00 0.3792636
312.10 0.3804809
312.20 0.380446
312.30 0.3797943
312.40 0.3791425
312.50 0.3784907
312.60 0.3778388
312.70 0.3771868
312.80 0.3765349
312.90 0.3758828
313.00 0.3752307
313.10 0.3745786
313.20 0.3739264
313.30 0.3732741
313.40 0.3726218
313.50 0.3719695
313.60 0.3713171
313.70 0.3706625
313.80 0.3699043
313.90 0.369146
314.00 0.3683876
314.10 0.3676292
314.20 0.3668707
314.30 0.3661122
314.40 0.3653536
314.50 0.3645949
314.60 0.3638362
314.70 0.3630774
314.80 0.3623186
314.90 0.3615597
315.00 0.3608007
315.10 0.3600417
315.20 0.3592826
315.30 0.3588276
315.40 0.3591171
315.50 0.3594066
315.60 0.3596961
315.70 0.3599857
315.80 0.3602752
315.90 0.3605648
316.00 0.3608544
316.10 0.3611441
316.20 0.3614337
316.30 0.3617234
316.40 0.3620131
316.50 0.3623028
316.60 0.3625926
316.70 0.3628823
316.80 0.3631721
316.90 0.3635531
317.00 0.3640329
317.10 0.3645128
317.20 0.3649927
317.30 0.3654726
317.40 0.3659525
317.50 0.3664325
317.60 0.3669126
317.70 0.3673926
317.80 0.3678727
317.90 0.3683529
318.00 0.368833
318.10 0.3693133
318.20 0.3697935
318.30 0.3702738
318.40 0.3707541
318.50 0.3710669
318.60 0.3712633
318.70 0.3714597
318.80 0.3716561
318.90 0.3718525
319.00 0.3720489
319.10 0.3722454
319.20 0.3724418
319.30 0.3726383
319.40 0.3728348
319.50 0.3730313
319.60 0.3732278
319.70 0.3734243
319.80 0.3736209
319.90 0.3738174
320.00 0.374014
320.10 0.3735449
320.20 0.3726677
320.30 0.3717905
320.40 0.3709133
320.50 0.3700359
320.60 0.3691585
320.70 0.368281
320.80 0.3674035
320.90 0.3665258
321.00 0.3656481
321.10 0.3647704
321.20 0.3638926
321.30 0.3630147
321.40 0.3621367
321.50 0.3612587
321.60 0.3603806
321.70 0.3600292
321.80 0.3600593
321.90 0.3600895
322.00 0.3601196
322.10 0.3601497
322.20 0.3601798
322.30 0.3602099
322.40 0.36024
322.50 0.3602701
322.60 0.3603002
322.70 0.3603304
322.80 0.3603605
322.90 0.3603906
323.00 0.3604207
323.10 0.3604509
323.20 0.360481
323.30 0.3622845
323.40 0.3662558
323.50 0.3702273
323.60 0.3741992
323.70 0.3781713
323.80 0.3821438
323.90 0.3861165
324.00 0.3900896
324.10 0.3940629
324.20 0.3980366
324.30 0.4020105
324.40 0.4059848
324.50 0.4099593
324.60 0.4139342
324.70 0.4179094
324.80 0.4218848
324.90 0.4258266
325.00 0.4296611
325.10 0.4334959
325.20 0.4373309
325.30 0.4411663
325.40 0.4450019
325.50 0.4488379
325.60 0.4526741
325.70 0.4565106
325.80 0.4603474
325.90 0.4641845
326.00 0.4680219
326.10 0.4718596
326.20 0.4756976
326.30 0.4795358
326.40 0.4833744
326.50 0.4872132
326.60 0.4880231
326.70 0.4886735
326.80 0.489324
326.90 0.4899746
327.00 0.4906252
327.10 0.4912758
327.20 0.4919265
327.30 0.4925773
327.40 0.4932281
327.50 0.4938789
327.60 0.4945298
327.70 0.4951808
327.80 0.4958318
327.90 0.4964828
328.00 0.4971339
328.10 0.497785
328.20 0.4979377
328.30 0.4977145
328.40 0.4974911
328.50 0.4972678
328.60 0.4970445
328.70 0.4968211
328.80 0.4965977
328.90 0.4963743
329.00 0.4961509
329.10 0.4959275
329.20 0.495704
329.30 0.4954805
329.40 0.495257
329.50 0.4950335
329.60 0.49481
329.70 0.4945864
329.80 0.4943177
329.90 0.4937179
330.00 0.493118
330.10 0.4925181
330.20 0.4919181
330.30 0.4913181
330.40 0.490718
330.50 0.4901179
330.60 0.4895177
330.70 0.4889175
330.80 0.4883173
330.90 0.487717
331.00 0.4871166
331.10 0.4865162
331.20 0.4859158
331.30 0.4853153
331.40 0.4847148
331.50 0.4842273
331.60 0.4838216
331.70 0.4834159
331.80 0.4830102
331.90 0.4826045
332.00 0.4821987
332.10 0.4817929
332.20 0.481387
332.30 0.4809811
332.40 0.4805752
332.50 0.4801693
332.60 0.4797633
332.70 0.4793573
332.80 0.4789513
332.90 0.4785452
333.00 0.4781391
333.10 0.477733
333.20 0.4759139
333.30 0.4740359
333.40 0.4721577
333.50 0.4702794
333.60 0.468401
333.70 0.4665223
333.80 0.4646436
333.90 0.4627647
334.00 0.4608857
334.10 0.4590065
334.20 0.4571272
334.30 0.4552477
334.40 0.4533681
334.50 0.4514883
334.60 0.4496084
334.70 0.4477284
334.80 0.4456427
334.90 0.4429717
335.00 0.4403005
335.10 0.4376292
335.20 0.4349576
335.30 0.4322858
335.40 0.4296138
335.50 0.4269417
335.60 0.4242693
335.70 0.4215967
335.80 0.4189239
335.90 0.4162509
336.00 0.4135777
336.10 0.4109043
336.20 0.4082307
336.30 0.4055569
336.40 0.4028829
336.50 0.4015729
336.60 0.4018013
336.70 0.4020297
336.80 0.4022581
336.90 0.4024865
337.00 0.4027149
337.10 0.4029434
337.20 0.4031719
337.30 0.4034003
337.40 0.4036288
337.50 0.4038574
337.60 0.4040859
337.70 0.4043144
337.80 0.404543
337.90 0.4047716
338.00 0.4050002
338.10 0.4052288
338.20 0.4060556
338.30 0.4072813
338.40 0.408507
338.50 0.4097329
338.60 0.4109588
338.70 0.4121848
338.80 0.413411
338.90 0.4146372
339.00 0.4158635
339.10 0.4170899
339.20 0.4183164
339.30 0.4195429
339.40 0.4207696
339.50 0.4219964
339.60 0.4232232
339.70 0.4244502
339.80 0.4256772
339.90 0.4261192
340.00 0.4261197
340.10 0.4261201
340.20 0.4261205
340.30 0.4261209
340.40 0.4261214
340.50 0.4261218
340.60 0.4261222
340.70 0.4261226
340.80 0.426123
340.90 0.4261235
341.00 0.4261239
341.10 0.4261243
341.20 0.4261247
341.30 0.4261251
341.40 0.4261255
341.50 0.4261259
341.60 0.4264772
341.70 0.4270624
341.80 0.4276476
341.90 0.4282329
342.00 0.4288182
342.10 0.4294035
342.20 0.4299889
342.30 0.4305744
342.40 0.4311598
342.50 0.4317454
342.60 0.4323309
342.70 0.4329165
342.80 0.4335022
342.90 0.4340879
343.00 0.4346736
343.10 0.4352594
343.20 0.4358452
343.30 0.4372485
343.40 0.4395373
343.50 0.4418263
343.60 0.4441155
343.70 0.4464049
343.80 0.4486944
343.90 0.4509841
344.00 0.453274
344.10 0.4555641
344.20 0.4578543
344.30 0.4601447
344.40 0.4624352
344.50 0.464726
344.60 0.4670169
344.70 0.4693079
344.80 0.4715992
344.90 0.4738906
345.00 0.4761534
345.10 0.4783342
345.20 0.4805152
345.30 0.4826963
345.40 0.4848776
345.50 0.4870591
345.60 0.4892408
345.70 0.4914226
345.80 0.4936045
345.90 0.4957866
346.00 0.4979689
346.10 0.5001514
346.20 0.502334
346.30 0.5045168
346.40 0.5066997
346.50 0.5088828
346.60 0.5110661
346.70 0.5132495
346.80 0.5144338
346.90 0.5155766
347.00 0.5167194
347.10 0.5178623
347.20 0.5190052
347.30 0.5201483
347.40 0.5212915
347.50 0.5224347
347.60 0.523578
347.70 0.5247214
347.80 0.5258649
347.90 0.5270085
348.00 0.5281521
348.10 0.5292959
348.20 0.5304397
348.30 0.5315836
348.40 0.5327276
348.50 0.5335174
348.60 0.5340507
348.70 0.534584
348.80 0.5351173
348.90 0.5356507
349.00 0.5361841
349.10 0.5367175
349.20 0.537251
349.30 0.5377846
349.40 0.5383181
349.50 0.5388517
349.60 0.5393854
349.70 0.5399191
349.80 0.5404528
349.90 0.5409865
350.00 0.5415203
350.10 0.5420542
350.20 0.5425257
350.30 0.5424927
350.40 0.5424597
350.50 0.5424268
350.60 0.5423938
350.70 0.5423608
350.80 0.5423278
350.90 0.5422948
351.00 0.5422618
351.10 0.5422288
351.20 0.5421957
351.30 0.5421627
351.40 0.5421297
351.50 0.5420967
351.60 0.5420636
351.70 0.5420306
351.80 0.5419976
351.90 0.5419645
352.00 0.5423366
352.10 0.5430402
352.20 0.5437439
352.30 0.5444476
352.40 0.5451513
352.50 0.5458551
352.60 0.546559
352.70 0.5472629
352.80 0.5479669
352.90 0.5486709
353.00 0.5493749
353.10 0.5500791
353.20 0.5507832
353.30 0.5514874
353.40 0.5521917
353.50 0.552896
353.60 0.5536004
353.70 0.5543048
353.80 0.5530676
353.90 0.5516146
354.00 0.5501614
354.10 0.5487082
354.20 0.5472548
354.30 0.5458013
354.40 0.5443477
354.50 0.542894
354.60 0.5414402
354.70 0.5399863
354.80 0.5385322
354.90 0.5370781
355.00 0.5356238
355.10 0.5341695
355.20 0.532715
355.30 0.5312604
355.40 0.5298057
355.50 0.5279476
355.60 0.5239718
355.70 0.5199957
355.80 0.5160194
355.90 0.5120427
356.00 0.5080657
356.10 0.5040885
356.20 0.5001109
356.30 0.496133
356.40 0.4921549
356.50 0.4881764
356.60 0.4841976
356.70 0.4802186
356.80 0.4762392
356.90 0.4722595
357.00 0.4682796
357.10 0.4642993
357.20 0.4603188
357.30 0.4577587
357.40 0.4580832
357.50 0.4584077
357.60 0.4587323
357.70 0.4590568
357.80 0.4593814
357.90 0.4597061
358.00 0.4600307
358.10 0.4603554
358.20 0.4606801
358.30 0.4610048
358.40 0.4613295
358.50 0.4616543
358.60 0.461979
358.70 0.4623038
358.80 0.4626287
358.90 0.4629535
359.00 0.4632784
359.10 0.4644954
359.20 0.4669446
359.30 0.469394
359.40 0.4718436
359.50 0.4742933
359.60 0.4767433
359.70 0.4791934
359.80 0.4816437
359.90 0.4840941
360.00 0.4865448
360.10 0.4889956
360.20 0.4914466
360.30 0.4938978
360.40 0.4963492
360.50 0.4988008
360.60 0.5012526
360.70 0.5037045
360.80 0.5061566
360.90 0.5080439
361.00 0.5091182
361.10 0.5101925
361.20 0.511267
361.30 0.5123415
361.40 0.5134162
361.50 0.5144908
361.60 0.5155656
361.70 0.5166405
361.80 0.5177154
361.90 0.5187904
362.00 0.5198655
362.10 0.5209407
362.20 0.5220159
362.30 0.5230912
362.40 0.5241667
362.50 0.5252421
362.60 0.5263177
362.70 0.527692
362.80 0.5297012
362.90 0.5317105
363.00 0.53372
363.10 0.5357296
363.20 0.5377394
363.30 0.5397493
363.40 0.5417594
363.50 0.5437696
363.60 0.5457799
363.70 0.5477905
363.80 0.5498011
363.90 0.5518119
364.00 0.5538229
364.10 0.555834
364.20 0.5578453
364.30 0.5598567
364.40 0.5618682
364.50 0.5639478
364.60 0.5664814
364.70 0.5690152
364.80 0.5715493
364.90 0.5740835
365.00 0.5766179
365.10 0.5791525
365.20 0.5816872
365.30 0.5842222
365.40 0.5867574
365.50 0.5892927
365.60 0.5918282
365.70 0.594364
365.80 0.5968999
365.90 0.5994359
366.00 0.6019722
366.10 0.6045087
366.20 0.6070454
366.30 0.6095822
366.40 0.6099633
366.50 0.6099934
366.60 0.6100235
366.70 0.6100537
366.80 0.6100838
366.90 0.6101139
367.00 0.6101441
367.10 0.6101742
367.20 0.6102043
367.30 0.6102344
367.40 0.6102646
367.50 0.6102947
367.60 0.6103248
367.70 0.610355
367.80 0.6103851
367.90 0.6104153
368.00 0.6104454
368.10 0.6104755
368.20 0.6100655
368.30 0.6091974
368.40 0.6083292
368.50 0.607461
368.60 0.6065927
368.70 0.6057243
368.80 0.6048558
368.90 0.6039873
369.00 0.6031187
369.10 0.6022501
369.20 0.6013814
369.30 0.6005126
369.40 0.5996437
369.50 0.5987748
369.60 0.5979058
369.70 0.5970368
369.80 0.5961677
369.90 0.5952985
370.00 0.5943873
370.10 0.5921201
370.20 0.5898527
370.30 0.5875851
370.40 0.5853173
370.50 0.5830494
370.60 0.5807813
370.70 0.5785131
370.80 0.5762446
370.90 0.573976
371.00 0.5717073
371.10 0.5694383
371.20 0.5671692
371.30 0.5648999
371.40 0.5626304
371.50 0.5603608
371.60 0.558091
371.70 0.555821
371.80 0.5535509
371.90 0.5510912
372.00 0.5484178
372.10 0.5457441
372.20 0.5430703
372.30 0.5403962
372.40 0.5377219
372.50 0.5350475
372.60 0.5323728
372.70 0.529698
372.80 0.5270229
372.90 0.5243477
373.00 0.5216722
373.10 0.5189966
373.20 0.5163207
373.30 0.5136446
373.40 0.5109684
373.50 0.5082919
373.60 0.5056152
373.70 0.5029384
373.80 0.5039526
373.90 0.5057231
374.00 0.5074936
374.10 0.5092643
374.20 0.5110351
374.30 0.5128061
374.40 0.5145771
374.50 0.5163483
374.60 0.5181197
374.70 0.5198911
374.80 0.5216627
374.90 0.5234345
375.00 0.5252063
375.10 0.5269783
375.20 0.5287504
375.30 0.5305227
375.40 0.5322951
375.50 0.5340676
375.60 0.5360557
375.70 0.5402228
375.80 0.5443902
375.90 0.5485579
376.00 0.5527259
376.10 0.5568942
376.20 0.5610628
376.30 0.5652318
376.40 0.569401
376.50 0.5735706
376.60 0.5777404
376.70 0.5819106
376.80 0.5860811
376.90 0.5902519
377.00 0.594423
377.10 0.5985944
377.20 0.6027661
377.30 0.6069381
377.40 0.6111104
377.50 0.6141599
377.60 0.6138397
377.70 0.6135195
377.80 0.6131993
377.90 0.6128791
378.00 0.6125589
378.10 0.6122386
378.20 0.6119183
378.30 0.611598
378.40 0.6112776
378.50 0.6109572
378.60 0.6106368
378.70 0.6103164
378.80 0.609996
378.90 0.6096755
379.00 0.609355
379.10 0.6090345
379.20 0.6087139
379.30 0.6083933
379.40 0.6067911
379.50 0.6024651
379.60 0.5981388
379.70 0.5938121
379.80 0.5894852
379.90 0.5851579
380.00 0.5808303
380.10 0.5765024
380.20 0.5721741
380.30 0.5678456
380.40 0.5635167
380.50 0.5591875
380.60 0.5548579
380.70 0.5505281
380.80 0.5461979
380.90 0.5418674
381.00 0.5375365
381.10 0.5332054
381.20 0.5288739
381.30 0.5246382
381.40 0.5206264
381.50 0.5166143
381.60 0.5126019
381.70 0.5085892
381.80 0.5045762
381.90 0.5005629
382.00 0.4965493
382.10 0.4925354
382.20 0.4885212
382.30 0.4845067
382.40 0.4804919
382.50 0.4764768
382.60 0.4724614
382.70 0.4684457
382.80 0.4644297
382.90 0.4604134
383.00 0.4563968
383.10 0.4523799
383.20 0.44924
383.30 0.4500964
383.40 0.4509529
383.50 0.4518095
383.60 0.4526661
383.70 0.4535228
383.80 0.4543795
383.90 0.4552363
384.00 0.4560932
384.10 0.4569501
384.20 0.4578071
384.30 0.4586641
384.40 0.4595212
384.50 0.4603784
384.60 0.4612357
384.70 0.462093
384.80 0.4629503
384.90 0.4638077
385.00 0.4646652
385.10 0.4655228
385.20 0.4673429
385.30 0.4691929
385.40 0.471043
385.50 0.4728933
385.60 0.4747437
385.70 0.4765943
385.80 0.478445
385.90 0.4802958
386.00 0.4821468
386.10 0.4839978
386.20 0.4858491
386.30 0.4877004
386.40 0.4895519
386.50 0.4914036
386.60 0.4932554
386.70 0.4951073
386.80 0.4969593
386.90 0.4988115
387.00 0.5006638
387.10 0.5032254
387.20 0.5061691
387.30 0.509113
387.40 0.5120572
387.50 0.5150015
387.60 0.5179461
387.70 0.5208908
387.80 0.5238358
387.90 0.526781
388.00 0.5297265
388.10 0.5326721
388.20 0.535618
388.30 0.538564
388.40 0.5415103
388.50 0.5444568
388.60 0.5474036
388.70 0.5503505
388.80 0.5532977
388.90 0.556245
389.00 0.5588926
389.10 0.5606402
389.20 0.5623879
389.30 0.5641357
389.40 0.5658836
389.50 0.5676317
389.60 0.5693799
389.70 0.5711282
389.80 0.5728767
389.90 0.5746253
390.00 0.576374
390.10 0.5781229
390.20 0.5798718
390.30 0.5816209
390.40 0.5833702
390.50 0.5851195
390.60 0.586869
390.70 0.5886186
390.80 0.5903684
390.90 0.5921182
391.00 0.5897819
391.10 0.5860096
391.20 0.582237
391.30 0.5784641
391.40 0.574691
391.50 0.5709175
391.60 0.5671438
391.70 0.5633698
391.80 0.5595955
391.90 0.555821
392.00 0.5520461
392.10 0.548271
392.20 0.5444956
392.30 0.5407199
392.40 0.536944
392.50 0.5331677
392.60 0.5293912
392.70 0.5256144
392.80 0.5218373
392.90 0.5185422
393.00 0.5182092
393.10 0.5178761
393.20 0.5175431
393.30 0.51721
393.40 0.5168769
393.50 0.5165437
393.60 0.5162105
393.70 0.5158773
393.80 0.5155441
393.90 0.5152109
394.00 0.5148776
394.10 0.5145443
394.20 0.514211
394.30 0.5138776
394.40 0.5135442
394.50 0.5132108
394.60 0.5128774
394.70 0.5125439
394.80 0.5122105
394.90 0.5135084
395.00 0.516883
395.10 0.5202577
395.20 0.5236328
395.30 0.5270081
395.40 0.5303836
395.50 0.5337594
395.60 0.5371354
395.70 0.5405117
395.80 0.5438882
395.90 0.547265
396.00 0.550642
396.10 0.5540193
396.20 0.5573968
396.30 0.5607746
396.40 0.5641526
396.50 0.5675309
396.60 0.5709094
396.70 0.5742882
396.80 0.5776672
396.90 0.5838092
397.00 0.5915059
397.10 0.5992031
397.20 0.6069009
397.30 0.6145993
397.40 0.6222982
397.50 0.6299977
397.60 0.6376978
397.70 0.6453984
397.80 0.6530996
397.90 0.6608014
398.00 0.6685037
398.10 0.6762066
398.20 0.6839101
398.30 0.6916141
398.40 0.6993187
398.50 0.7070239
398.60 0.7147296
398.70 0.7224359
398.80 0.7301428
398.90 0.736157
399.00 0.7415768
399.10 0.746997
399.20 0.7524176
399.30 0.7578385
399.40 0.7632599
399.50 0.7686817
399.60 0.7741039
399.70 0.7795264
399.80 0.7849494
399.90 0.7903728
400.00 0.7957965
400.10 0.8012193
400.20 0.8066424
400.30 0.8120659
400.40 0.8174898
400.50 0.8229141
400.60 0.8283387
400.70 0.8337637
400.80 0.8391891
400.90 0.8410738
401.00 0.8417143
401.10 0.8423548
401.20 0.8429954
401.30 0.8436361
401.40 0.8442768
401.50 0.8449175
401.60 0.8455583
401.70 0.8461991
401.80 0.8468399
401.90 0.8474808
402.00 0.8481218
402.10 0.8487627
402.20 0.8494038
402.30 0.8500448
402.40 0.8506859
402.50 0.8513271
402.60 0.8519683
402.70 0.8526095
402.80 0.8532508
402.90 0.853012
403.00 0.8522782
403.10 0.8515442
403.20 0.8508103
403.30 0.8500762
403.40 0.8493421
403.50 0.848608
403.60 0.8478738
403.70 0.8471395
403.80 0.8464052
403.90 0.8456709
404.00 0.8449364
404.10 0.844202
404.20 0.8434675
404.30 0.8427329
404.40 0.8419982
404.50 0.8412636
404.60 0.8405288
404.70 0.839794
404.80 0.8390592
404.90 0.8386428
405.00 0.8386319
405.10 0.8386209
405.20 0.83861
405.30 0.838599
405.40 0.838588
405.50 0.838577
405.60 0.8385661
405.70 0.8385551
405.80 0.8385441
405.90 0.8385331
406.00 0.8385221
406.10 0.8385111
406.20 0.8385002
406.30 0.8384892
406.40 0.8384782
406.50 0.8384672
406.60 0.8384562
406.70 0.8384451
406.80 0.8384341
406.90 0.8386145
407.00 0.8399704
407.10 0.8413264
407.20 0.8426824
407.30 0.8440386
407.40 0.8453949
407.50 0.8467512
407.60 0.8481077
407.70 0.8494642
407.80 0.8508208
407.90 0.8521775
408.00 0.8535344
408.10 0.8548913
408.20 0.8562483
408.30 0.8576054
408.40 0.8589626
408.50 0.8603198
408.60 0.8616772
408.70 0.8630347
408.80 0.8643923
408.90 0.8657499
409.00 0.8670839
409.10 0.8684092
409.20 0.8697346
409.30 0.8710601
409.40 0.8723857
409.50 0.8737114
409.60 0.8750372
409.70 0.876363
409.80 0.877689
409.90 0.879015
410.00 0.8803411
410.10 0.8816673
410.20 0.8829937
410.30 0.8843201
410.40 0.8856466
410.50 0.8869731
410.60 0.8882998
410.70 0.8896266
410.80 0.8909534
410.90 0.8922804
411.00 0.8934408
411.10 0.8940435
411.20 0.8946462
411.30 0.8952489
411.40 0.8958517
411.50 0.8964545
411.60 0.8970574
411.70 0.8976603
411.80 0.8982632
411.90 0.8988662
412.00 0.8994692
412.10 0.9000723
412.20 0.9006754
412.30 0.9012785
412.40 0.9018817
412.50 0.9024849
412.60 0.9030882
412.70 0.9036915
412.80 0.9042948
412.90 0.9048982
413.00 0.9055016
413.10 0.9058244
413.20 0.9059752
413.30 0.906126
413.40 0.9062768
413.50 0.9064276
413.60 0.9065785
413.70 0.9067293
413.80 0.9068801
413.90 0.907031
414.00 0.9071819
414.10 0.9073327
414.20 0.9074836
414.30 0.9076345
414.40 0.9077854
414.50 0.9079363
414.60 0.9080872
414.70 0.9082381
414.80 0.908389
414.90 0.90854
415.00 0.9086909
415.10 0.9088419
415.20 0.9082491
415.30 0.9075826
415.40 0.9069162
415.50 0.9062496
415.60 0.9055831
415.70 0.9049165
415.80 0.9042498
415.90 0.9035831
416.00 0.9029163
416.10 0.9022495
416.20 0.9015826
416.30 0.9009157
416.40 0.9002488
416.50 0.8995817
416.60 0.8989147
416.70 0.8982476
416.80 0.8975804
416.90 0.8969132
417.00 0.896246
417.10 0.8955787
417.20 0.8948508
417.30 0.8935111
417.40 0.8921713
417.50 0.8908314
417.60 0.8894914
